File: Figures/10-13-09 ESEM/Inner Shell 2 200x.txt
#FORMAT      : EMSA/MAS Spectral Data File
#VERSION     : 1.0
#TITLE       : Inner Shell 2 200x
#DATE        : 13-OCT-2009
#TIME        : 14:34
#OWNER       :
#NPOINTS     : 1024.
#NCOLUMNS    : 1.
#XUNITS      : keV
#YUNITS      : counts
#DATATYPE    : XY
#XPERCHAN    : 0.0100000
#OFFSET      : -0.100000
#SIGNALTYPE  : EDS
#CHOFFSET    : 10.0000
#LIVETIME    : 60
#REALTIME    : 61.0628
#BEAMKV      : 20.0000
#PROBECUR    : 0.000000
#MAGCAM      : 94.0000
#XPOSITION mm: 0.0000
#YPOSITION mm: 0.0000
#ZPOSITION mm: 0.0000
##OXINSTELEMS: 6,8,11,13,14,19,20
##OXINSTLABEL: 6, 0.277, C
##OXINSTLABEL: 19, 3.314, K
##OXINSTLABEL: 19, 3.590, K
##OXINSTLABEL: 19, 0.262, K
##OXINSTLABEL: 8, 0.525, O
##OXINSTLABEL: 14, 1.740, Si
##OXINSTLABEL: 11, 1.041, Na
##OXINSTLABEL: 20, 3.692, Ca
##OXINSTLABEL: 20, 4.013, Ca
##OXINSTLABEL: 20, 0.341, Ca
##OXINSTLABEL: 20, 0.306, Ca
##OXINSTLABEL: 13, 1.487, Al
#SPECTRUM    : Spectral Data Starts Here
-0.100, 0.
-0.060, 110.
-0.020, 742.
0.020, 1498.
0.060, 1071.
0.100, 150.
0.140, 8.
0.180, 7.
0.220, 26.
0.260, 58.
0.300, 28.
0.340, 11.
0.380, 8.
0.420, 23.
0.460, 88.
0.500, 263.
0.540, 216.
0.580, 59.
0.620, 10.
0.660, 3.
0.700, 4.
0.740, 6.
0.780, 6.
0.820, 6.
0.860, 7.
0.900, 7.
0.940, 13.
0.980, 16.
1.020, 22.
1.060, 26.
1.100, 16.
1.140, 12.
1.180, 11.
1.220, 10.
1.260, 11.
1.300, 11.
1.340, 7.
1.380, 7.
1.420, 10.
1.460, 19.
1.500, 23.
1.540, 15.
1.580, 11.
1.620, 25.
1.660, 107.
1.700, 421.
1.740, 619.
1.780, 436.
1.820, 129.
1.860, 36.
1.900, 15.
1.940, 6.
1.980, 5.
2.020, 9.
2.060, 7.
2.100, 4.
2.140, 4.
2.180, 6.
2.220, 5.
2.260, 7.
2.300, 8.
2.340, 5.
2.380, 7.
2.420, 5.
2.460, 7.
2.500, 7.
2.540, 8.
2.580, 8.
2.620, 7.
2.660, 8.
2.700, 6.
2.740, 3.
2.780, 4.
2.820, 5.
2.860, 6.
2.900, 5.
2.940, 4.
2.980, 7.
3.020, 4.
3.060, 4.
3.100, 2.
3.140, 4.
3.180, 4.
3.220, 5.
3.260, 3.
3.300, 8.
3.340, 13.
3.380, 8.
3.420, 8.
3.460, 6.
3.500, 6.
3.540, 6.
3.580, 8.
3.620, 8.
3.660, 18.
3.700, 16.
3.740, 7.
3.780, 7.
3.820, 4.
3.860, 7.
3.900, 4.
3.940, 3.
3.980, 6.
4.020, 6.
4.060, 6.
4.100, 4.
4.140, 8.
4.180, 3.
4.220, 5.
4.260, 2.
4.300, 3.
4.340, 5.
4.380, 5.
4.420, 4.
4.460, 2.
4.500, 8.
4.540, 2.
4.580, 2.
4.620, 2.
4.660, 3.
4.700, 3.
4.740, 5.
4.780, 1.
4.820, 3.
4.860, 4.
4.900, 3.
4.940, 3.
4.980, 3.
5.020, 4.
5.060, 2.
5.100, 3.
5.140, 4.
5.180, 3.
5.220, 4.
5.260, 4.
5.300, 4.
5.340, 2.
5.380, 4.
5.420, 2.
5.460, 3.
5.500, 2.
5.540, 5.
5.580, 2.
5.620, 2.
5.660, 1.
5.700, 1.
5.740, 2.
5.780, 3.
5.820, 2.
5.860, 2.
5.900, 4.
5.940, 2.
5.980, 3.
6.020, 0.
6.060, 3.
6.100, 4.
6.140, 3.
6.180, 4.
6.220, 3.
6.260, 3.
6.300, 1.
6.340, 7.
6.380, 3.
6.420, 6.
6.460, 3.
6.500, 4.
6.540, 2.
6.580, 1.
6.620, 3.
6.660, 4.
6.700, 3.
6.740, 3.
6.780, 3.
6.820, 2.
6.860, 3.
6.900, 3.
6.940, 1.
6.980, 4.
7.020, 3.
7.060, 2.
7.100, 2.
7.140, 1.
7.180, 2.
7.220, 1.
7.260, 0.
7.300, 3.
7.340, 2.
7.380, 2.
7.420, 1.
7.460, 1.
7.500, 2.
7.540, 1.
7.580, 1.
7.620, 1.
7.660, 1.
7.700, 2.
7.740, 2.
7.780, 1.
7.820, 5.
7.860, 3.
7.900, 1.
7.940, 6.
7.980, 3.
8.020, 5.
8.060, 8.
8.100, 4.
8.140, 3.
8.180, 2.
8.220, 2.
8.260, 1.
8.300, 4.
8.340, 1.
8.380, 1.
8.420, 1.
8.460, 0.
8.500, 1.
8.540, 1.
8.580, 1.
8.620, 1.
8.660, 2.
8.700, 0.
8.740, 3.
8.780, 0.
8.820, 1.
8.860, 1.
8.900, 2.
8.940, 1.
8.980, 1.
9.020, 2.
9.060, 0.
9.100, 1.
9.140, 1.
9.180, 0.
9.220, 3.
9.260, 0.
9.300, 1.
9.340, 1.
9.380, 2.
9.420, 0.
9.460, 2.
9.500, 0.
9.540, 0.
9.580, 0.
9.620, 0.
9.660, 1.
9.700, 1.
9.740, 1.
9.780, 1.
9.820, 0.
9.860, 0.
9.900, 0.
9.940, 0.
9.980, 0.
10.020, 0.
10.060, 0.
10.100, 0.
10.130, 0.
#ENDOFDATA   :