File: Figures/10-13-09 ESEM/Inner Shell 1 1000x.txt
#FORMAT      : EMSA/MAS Spectral Data File
#VERSION     : 1.0
#TITLE       : Inner Shell 1 1000x
#DATE        : 13-OCT-2009
#TIME        : 14:30
#OWNER       :
#NPOINTS     : 1024.
#NCOLUMNS    : 1.
#XUNITS      : keV
#YUNITS      : counts
#DATATYPE    : XY
#XPERCHAN    : 0.0100000
#OFFSET      : -0.100000
#SIGNALTYPE  : EDS
#CHOFFSET    : 10.0000
#LIVETIME    : 60
#REALTIME    : 61.058
#BEAMKV      : 20.0000
#PROBECUR    : 0.000000
#MAGCAM      : 473.000
#XPOSITION mm: 0.0000
#YPOSITION mm: 0.0000
#ZPOSITION mm: 0.0000
##OXINSTELEMS: 6,8,11,13,14,19,20,29
##OXINSTLABEL: 8, 0.525, O
##OXINSTLABEL: 14, 1.740, Si
##OXINSTLABEL: 6, 0.277, C
##OXINSTLABEL: 11, 1.041, Na
##OXINSTLABEL: 13, 1.487, Al
##OXINSTLABEL: 29, 8.048, Cu
##OXINSTLABEL: 29, 8.905, Cu
##OXINSTLABEL: 29, 0.930, Cu
##OXINSTLABEL: 29, 0.832, Cu
##OXINSTLABEL: 29, 0.811, Cu
##OXINSTLABEL: 19, 3.314, K
##OXINSTLABEL: 19, 3.590, K
##OXINSTLABEL: 19, 0.262, K
##OXINSTLABEL: 20, 3.692, Ca
##OXINSTLABEL: 20, 4.013, Ca
##OXINSTLABEL: 20, 0.341, Ca
##OXINSTLABEL: 20, 0.306, Ca
#SPECTRUM    : Spectral Data Starts Here
-0.100, 0.
-0.060, 93.
-0.020, 757.
0.020, 1532.
0.060, 1099.
0.100, 155.
0.140, 4.
0.180, 5.
0.220, 16.
0.260, 25.
0.300, 16.
0.340, 9.
0.380, 4.
0.420, 28.
0.460, 92.
0.500, 242.
0.540, 248.
0.580, 68.
0.620, 10.
0.660, 3.
0.700, 5.
0.740, 2.
0.780, 6.
0.820, 6.
0.860, 8.
0.900, 8.
0.940, 8.
0.980, 12.
1.020, 18.
1.060, 19.
1.100, 12.
1.140, 6.
1.180, 7.
1.220, 8.
1.260, 9.
1.300, 14.
1.340, 10.
1.380, 7.
1.420, 11.
1.460, 15.
1.500, 22.
1.540, 17.
1.580, 14.
1.620, 27.
1.660, 106.
1.700, 399.
1.740, 687.
1.780, 438.
1.820, 139.
1.860, 25.
1.900, 13.
1.940, 7.
1.980, 8.
2.020, 4.
2.060, 4.
2.100, 1.
2.140, 6.
2.180, 4.
2.220, 3.
2.260, 6.
2.300, 5.
2.340, 6.
2.380, 5.
2.420, 4.
2.460, 4.
2.500, 6.
2.540, 5.
2.580, 5.
2.620, 6.
2.660, 6.
2.700, 5.
2.740, 7.
2.780, 6.
2.820, 3.
2.860, 4.
2.900, 5.
2.940, 3.
2.980, 4.
3.020, 3.
3.060, 5.
3.100, 4.
3.140, 4.
3.180, 5.
3.220, 6.
3.260, 9.
3.300, 6.
3.340, 8.
3.380, 8.
3.420, 7.
3.460, 6.
3.500, 3.
3.540, 4.
3.580, 7.
3.620, 5.
3.660, 7.
3.700, 10.
3.740, 7.
3.780, 3.
3.820, 5.
3.860, 4.
3.900, 4.
3.940, 3.
3.980, 5.
4.020, 5.
4.060, 2.
4.100, 5.
4.140, 6.
4.180, 3.
4.220, 5.
4.260, 3.
4.300, 3.
4.340, 3.
4.380, 2.
4.420, 3.
4.460, 4.
4.500, 3.
4.540, 3.
4.580, 5.
4.620, 3.
4.660, 6.
4.700, 1.
4.740, 2.
4.780, 2.
4.820, 2.
4.860, 4.
4.900, 3.
4.940, 2.
4.980, 2.
5.020, 3.
5.060, 5.
5.100, 5.
5.140, 0.
5.180, 2.
5.220, 5.
5.260, 2.
5.300, 4.
5.340, 4.
5.380, 4.
5.420, 2.
5.460, 6.
5.500, 1.
5.540, 3.
5.580, 1.
5.620, 2.
5.660, 1.
5.700, 2.
5.740, 0.
5.780, 4.
5.820, 4.
5.860, 2.
5.900, 4.
5.940, 2.
5.980, 3.
6.020, 2.
6.060, 2.
6.100, 3.
6.140, 3.
6.180, 2.
6.220, 5.
6.260, 3.
6.300, 3.
6.340, 4.
6.380, 3.
6.420, 6.
6.460, 3.
6.500, 3.
6.540, 4.
6.580, 2.
6.620, 3.
6.660, 1.
6.700, 1.
6.740, 3.
6.780, 3.
6.820, 4.
6.860, 2.
6.900, 2.
6.940, 3.
6.980, 2.
7.020, 1.
7.060, 5.
7.100, 1.
7.140, 1.
7.180, 1.
7.220, 1.
7.260, 0.
7.300, 0.
7.340, 0.
7.380, 2.
7.420, 1.
7.460, 0.
7.500, 1.
7.540, 3.
7.580, 1.
7.620, 1.
7.660, 2.
7.700, 2.
7.740, 1.
7.780, 3.
7.820, 3.
7.860, 1.
7.900, 1.
7.940, 4.
7.980, 6.
8.020, 2.
8.060, 2.
8.100, 3.
8.140, 3.
8.180, 1.
8.220, 0.
8.260, 3.
8.300, 2.
8.340, 2.
8.380, 2.
8.420, 1.
8.460, 2.
8.500, 2.
8.540, 0.
8.580, 2.
8.620, 1.
8.660, 4.
8.700, 1.
8.740, 1.
8.780, 1.
8.820, 3.
8.860, 2.
8.900, 1.
8.940, 2.
8.980, 2.
9.020, 0.
9.060, 0.
9.100, 1.
9.140, 0.
9.180, 1.
9.220, 0.
9.260, 2.
9.300, 1.
9.340, 3.
9.380, 1.
9.420, 0.
9.460, 1.
9.500, 1.
9.540, 1.
9.580, 1.
9.620, 1.
9.660, 2.
9.700, 1.
9.740, 0.
9.780, 1.
9.820, 0.
9.860, 0.
9.900, 0.
9.940, 0.
9.980, 0.
10.020, 0.
10.060, 0.
10.100, 0.
10.130, 0.
#ENDOFDATA   :