File: Figures/10-13-09 ESEM/Inner Shell 3 24000x.txt
#FORMAT      : EMSA/MAS Spectral Data File
#VERSION     : 1.0
#TITLE       : Inner Shell 3 24000x
#DATE        : 13-OCT-2009
#TIME        : 14:36
#OWNER       :
#NPOINTS     : 1024.
#NCOLUMNS    : 1.
#XUNITS      : keV
#YUNITS      : counts
#DATATYPE    : XY
#XPERCHAN    : 0.0100000
#OFFSET      : -0.100000
#SIGNALTYPE  : EDS
#CHOFFSET    : 10.0000
#LIVETIME    : 60
#REALTIME    : 61.2079
#BEAMKV      : 20.0000
#PROBECUR    : 0.000000
#MAGCAM      : 11361.0
#XPOSITION mm: 0.0000
#YPOSITION mm: 0.0000
#ZPOSITION mm: 0.0000
##OXINSTELEMS: 6,8,14,20
##OXINSTLABEL: 14, 1.740, Si
##OXINSTLABEL: 8, 0.525, O
##OXINSTLABEL: 6, 0.277, C
##OXINSTLABEL: 20, 3.692, Ca
##OXINSTLABEL: 20, 4.013, Ca
##OXINSTLABEL: 20, 0.341, Ca
##OXINSTLABEL: 20, 0.306, Ca
#SPECTRUM    : Spectral Data Starts Here
-0.100, 0.
-0.060, 106.
-0.020, 733.
0.020, 1508.
0.060, 999.
0.100, 149.
0.140, 7.
0.180, 10.
0.220, 30.
0.260, 51.
0.300, 35.
0.340, 13.
0.380, 7.
0.420, 26.
0.460, 136.
0.500, 334.
0.540, 306.
0.580, 82.
0.620, 10.
0.660, 2.
0.700, 3.
0.740, 6.
0.780, 9.
0.820, 6.
0.860, 4.
0.900, 10.
0.940, 15.
0.980, 10.
1.020, 15.
1.060, 10.
1.100, 6.
1.140, 10.
1.180, 10.
1.220, 9.
1.260, 15.
1.300, 9.
1.340, 13.
1.380, 10.
1.420, 14.
1.460, 18.
1.500, 28.
1.540, 24.
1.580, 22.
1.620, 36.
1.660, 158.
1.700, 586.
1.740, 911.
1.780, 645.
1.820, 208.
1.860, 57.
1.900, 14.
1.940, 11.
1.980, 8.
2.020, 6.
2.060, 9.
2.100, 5.
2.140, 7.
2.180, 6.
2.220, 11.
2.260, 7.
2.300, 6.
2.340, 7.
2.380, 7.
2.420, 9.
2.460, 6.
2.500, 8.
2.540, 8.
2.580, 8.
2.620, 6.
2.660, 9.
2.700, 9.
2.740, 6.
2.780, 8.
2.820, 4.
2.860, 5.
2.900, 9.
2.940, 5.
2.980, 5.
3.020, 4.
3.060, 5.
3.100, 4.
3.140, 6.
3.180, 7.
3.220, 5.
3.260, 8.
3.300, 8.
3.340, 8.
3.380, 4.
3.420, 7.
3.460, 4.
3.500, 7.
3.540, 8.
3.580, 6.
3.620, 9.
3.660, 10.
3.700, 15.
3.740, 10.
3.780, 8.
3.820, 5.
3.860, 7.
3.900, 5.
3.940, 3.
3.980, 6.
4.020, 4.
4.060, 4.
4.100, 4.
4.140, 4.
4.180, 3.
4.220, 5.
4.260, 4.
4.300, 4.
4.340, 4.
4.380, 2.
4.420, 4.
4.460, 3.
4.500, 3.
4.540, 2.
4.580, 5.
4.620, 4.
4.660, 2.
4.700, 1.
4.740, 4.
4.780, 4.
4.820, 3.
4.860, 2.
4.900, 7.
4.940, 5.
4.980, 3.
5.020, 4.
5.060, 5.
5.100, 5.
5.140, 4.
5.180, 6.
5.220, 4.
5.260, 4.
5.300, 3.
5.340, 1.
5.380, 5.
5.420, 3.
5.460, 2.
5.500, 2.
5.540, 2.
5.580, 2.
5.620, 3.
5.660, 1.
5.700, 3.
5.740, 5.
5.780, 3.
5.820, 2.
5.860, 4.
5.900, 1.
5.940, 5.
5.980, 2.
6.020, 2.
6.060, 2.
6.100, 2.
6.140, 4.
6.180, 5.
6.220, 4.
6.260, 2.
6.300, 4.
6.340, 4.
6.380, 4.
6.420, 3.
6.460, 4.
6.500, 0.
6.540, 2.
6.580, 1.
6.620, 4.
6.660, 4.
6.700, 3.
6.740, 1.
6.780, 1.
6.820, 2.
6.860, 0.
6.900, 1.
6.940, 1.
6.980, 2.
7.020, 2.
7.060, 3.
7.100, 1.
7.140, 3.
7.180, 1.
7.220, 2.
7.260, 1.
7.300, 1.
7.340, 3.
7.380, 4.
7.420, 2.
7.460, 1.
7.500, 1.
7.540, 1.
7.580, 2.
7.620, 3.
7.660, 2.
7.700, 2.
7.740, 2.
7.780, 1.
7.820, 2.
7.860, 1.
7.900, 2.
7.940, 1.
7.980, 2.
8.020, 4.
8.060, 5.
8.100, 2.
8.140, 2.
8.180, 0.
8.220, 2.
8.260, 2.
8.300, 0.
8.340, 0.
8.380, 1.
8.420, 1.
8.460, 1.
8.500, 4.
8.540, 1.
8.580, 0.
8.620, 1.
8.660, 2.
8.700, 2.
8.740, 1.
8.780, 3.
8.820, 1.
8.860, 1.
8.900, 1.
8.940, 1.
8.980, 0.
9.020, 1.
9.060, 1.
9.100, 1.
9.140, 1.
9.180, 1.
9.220, 3.
9.260, 3.
9.300, 2.
9.340, 2.
9.380, 2.
9.420, 2.
9.460, 1.
9.500, 0.
9.540, 0.
9.580, 2.
9.620, 1.
9.660, 1.
9.700, 0.
9.740, 1.
9.780, 1.
9.820, 0.
9.860, 0.
9.900, 0.
9.940, 0.
9.980, 0.
10.020, 0.
10.060, 0.
10.100, 0.
10.130, 0.
#ENDOFDATA   :