File: Figures/10-13-09 ESEM/Outer Shell Pore 9000x.txt
#FORMAT      : EMSA/MAS Spectral Data File
#VERSION     : 1.0
#TITLE       : Outer Shell Pore 9000x
#DATE        : 13-OCT-2009
#TIME        : 14:12
#OWNER       :
#NPOINTS     : 1024.
#NCOLUMNS    : 1.
#XUNITS      : keV
#YUNITS      : counts
#DATATYPE    : XY
#XPERCHAN    : 0.0100000
#OFFSET      : -0.100000
#SIGNALTYPE  : EDS
#CHOFFSET    : 10.0000
#LIVETIME    : 60
#REALTIME    : 60.9828
#BEAMKV      : 20.0000
#PROBECUR    : 0.000000
#MAGCAM      : 4314.00
#XPOSITION mm: 0.0000
#YPOSITION mm: 0.0000
#ZPOSITION mm: 0.0000
##OXINSTELEMS: 6,8,13,14,17,20,29
##OXINSTLABEL: 8, 0.525, O
##OXINSTLABEL: 14, 1.740, Si
##OXINSTLABEL: 6, 0.277, C
##OXINSTLABEL: 17, 2.622, Cl
##OXINSTLABEL: 17, 2.816, Cl
##OXINSTLABEL: 17, 0.184, Cl
##OXINSTLABEL: 29, 8.048, Cu
##OXINSTLABEL: 29, 8.905, Cu
##OXINSTLABEL: 29, 0.930, Cu
##OXINSTLABEL: 29, 0.832, Cu
##OXINSTLABEL: 29, 0.811, Cu
##OXINSTLABEL: 20, 3.692, Ca
##OXINSTLABEL: 20, 4.013, Ca
##OXINSTLABEL: 20, 0.341, Ca
##OXINSTLABEL: 20, 0.306, Ca
##OXINSTLABEL: 13, 1.487, Al
#SPECTRUM    : Spectral Data Starts Here
-0.100, 0.
-0.060, 91.
-0.020, 749.
0.020, 1515.
0.060, 1071.
0.100, 171.
0.140, 5.
0.180, 6.
0.220, 33.
0.260, 58.
0.300, 23.
0.340, 9.
0.380, 4.
0.420, 19.
0.460, 68.
0.500, 191.
0.540, 185.
0.580, 51.
0.620, 6.
0.660, 4.
0.700, 4.
0.740, 5.
0.780, 5.
0.820, 8.
0.860, 6.
0.900, 14.
0.940, 22.
0.980, 13.
1.020, 13.
1.060, 15.
1.100, 8.
1.140, 5.
1.180, 9.
1.220, 10.
1.260, 10.
1.300, 6.
1.340, 8.
1.380, 10.
1.420, 12.
1.460, 21.
1.500, 21.
1.540, 17.
1.580, 16.
1.620, 25.
1.660, 105.
1.700, 395.
1.740, 635.
1.780, 399.
1.820, 134.
1.860, 31.
1.900, 11.
1.940, 7.
1.980, 6.
2.020, 6.
2.060, 7.
2.100, 7.
2.140, 7.
2.180, 3.
2.220, 5.
2.260, 6.
2.300, 12.
2.340, 7.
2.380, 9.
2.420, 6.
2.460, 10.
2.500, 6.
2.540, 6.
2.580, 14.
2.620, 21.
2.660, 15.
2.700, 11.
2.740, 6.
2.780, 8.
2.820, 4.
2.860, 7.
2.900, 5.
2.940, 6.
2.980, 5.
3.020, 6.
3.060, 4.
3.100, 3.
3.140, 6.
3.180, 7.
3.220, 4.
3.260, 3.
3.300, 8.
3.340, 7.
3.380, 5.
3.420, 12.
3.460, 3.
3.500, 5.
3.540, 5.
3.580, 6.
3.620, 6.
3.660, 12.
3.700, 15.
3.740, 9.
3.780, 8.
3.820, 5.
3.860, 5.
3.900, 3.
3.940, 5.
3.980, 3.
4.020, 3.
4.060, 2.
4.100, 5.
4.140, 3.
4.180, 5.
4.220, 5.
4.260, 5.
4.300, 5.
4.340, 4.
4.380, 5.
4.420, 4.
4.460, 3.
4.500, 5.
4.540, 3.
4.580, 3.
4.620, 3.
4.660, 1.
4.700, 4.
4.740, 4.
4.780, 2.
4.820, 2.
4.860, 3.
4.900, 2.
4.940, 3.
4.980, 4.
5.020, 2.
5.060, 2.
5.100, 4.
5.140, 3.
5.180, 4.
5.220, 4.
5.260, 2.
5.300, 7.
5.340, 3.
5.380, 3.
5.420, 3.
5.460, 4.
5.500, 3.
5.540, 2.
5.580, 3.
5.620, 1.
5.660, 3.
5.700, 3.
5.740, 5.
5.780, 1.
5.820, 2.
5.860, 3.
5.900, 1.
5.940, 2.
5.980, 3.
6.020, 3.
6.060, 6.
6.100, 3.
6.140, 2.
6.180, 4.
6.220, 2.
6.260, 1.
6.300, 3.
6.340, 1.
6.380, 2.
6.420, 3.
6.460, 3.
6.500, 3.
6.540, 2.
6.580, 2.
6.620, 5.
6.660, 3.
6.700, 3.
6.740, 2.
6.780, 3.
6.820, 1.
6.860, 2.
6.900, 1.
6.940, 2.
6.980, 1.
7.020, 0.
7.060, 2.
7.100, 2.
7.140, 2.
7.180, 2.
7.220, 1.
7.260, 2.
7.300, 2.
7.340, 2.
7.380, 0.
7.420, 2.
7.460, 2.
7.500, 1.
7.540, 3.
7.580, 1.
7.620, 2.
7.660, 1.
7.700, 1.
7.740, 1.
7.780, 2.
7.820, 2.
7.860, 2.
7.900, 4.
7.940, 5.
7.980, 11.
8.020, 14.
8.060, 9.
8.100, 9.
8.140, 3.
8.180, 4.
8.220, 1.
8.260, 1.
8.300, 1.
8.340, 1.
8.380, 1.
8.420, 4.
8.460, 3.
8.500, 2.
8.540, 2.
8.580, 1.
8.620, 1.
8.660, 1.
8.700, 1.
8.740, 2.
8.780, 1.
8.820, 2.
8.860, 2.
8.900, 3.
8.940, 4.
8.980, 1.
9.020, 1.
9.060, 2.
9.100, 0.
9.140, 2.
9.180, 3.
9.220, 0.
9.260, 2.
9.300, 0.
9.340, 1.
9.380, 2.
9.420, 1.
9.460, 0.
9.500, 0.
9.540, 1.
9.580, 0.
9.620, 1.
9.660, 1.
9.700, 0.
9.740, 0.
9.780, 0.
9.820, 0.
9.860, 0.
9.900, 0.
9.940, 0.
9.980, 0.
10.020, 0.
10.060, 0.
10.100, 0.
10.130, 0.
#ENDOFDATA   :