File: Figures/10-13-09 ESEM/Outer Shell Pore 2.txt
#FORMAT      : EMSA/MAS Spectral Data File
#VERSION     : 1.0
#TITLE       : Outer Shell Pore 2
#DATE        : 13-OCT-2009
#TIME        : 14:21
#OWNER       :
#NPOINTS     : 1024.
#NCOLUMNS    : 1.
#XUNITS      : keV
#YUNITS      : counts
#DATATYPE    : XY
#XPERCHAN    : 0.0100000
#OFFSET      : -0.100000
#SIGNALTYPE  : EDS
#CHOFFSET    : 10.0000
#LIVETIME    : 60
#REALTIME    : 60.9467
#BEAMKV      : 20.0000
#PROBECUR    : 0.000000
#MAGCAM      : 4734.00
#XPOSITION mm: 0.0000
#YPOSITION mm: 0.0000
#ZPOSITION mm: 0.0000
##OXINSTELEMS: 6,8,11,13,14,16,17,19,20,26,29
##OXINSTLABEL: 6, 0.277, C
##OXINSTLABEL: 8, 0.525, O
##OXINSTLABEL: 14, 1.740, Si
##OXINSTLABEL: 20, 3.692, Ca
##OXINSTLABEL: 20, 4.013, Ca
##OXINSTLABEL: 20, 0.341, Ca
##OXINSTLABEL: 20, 0.306, Ca
##OXINSTLABEL: 13, 1.487, Al
##OXINSTLABEL: 16, 2.308, S
##OXINSTLABEL: 16, 2.464, S
##OXINSTLABEL: 11, 1.041, Na
##OXINSTLABEL: 17, 2.622, Cl
##OXINSTLABEL: 17, 2.816, Cl
##OXINSTLABEL: 17, 0.184, Cl
##OXINSTLABEL: 26, 6.404, Fe
##OXINSTLABEL: 26, 7.058, Fe
##OXINSTLABEL: 26, 0.705, Fe
##OXINSTLABEL: 26, 0.628, Fe
##OXINSTLABEL: 29, 8.048, Cu
##OXINSTLABEL: 29, 8.905, Cu
##OXINSTLABEL: 29, 0.930, Cu
##OXINSTLABEL: 29, 0.832, Cu
##OXINSTLABEL: 29, 0.811, Cu
##OXINSTLABEL: 19, 3.314, K
##OXINSTLABEL: 19, 3.590, K
##OXINSTLABEL: 19, 0.262, K
#SPECTRUM    : Spectral Data Starts Here
-0.100, 0.
-0.060, 105.
-0.020, 740.
0.020, 1534.
0.060, 1060.
0.100, 146.
0.140, 5.
0.180, 7.
0.220, 34.
0.260, 67.
0.300, 37.
0.340, 6.
0.380, 3.
0.420, 14.
0.460, 47.
0.500, 134.
0.540, 135.
0.580, 32.
0.620, 8.
0.660, 3.
0.700, 3.
0.740, 7.
0.780, 3.
0.820, 3.
0.860, 8.
0.900, 9.
0.940, 14.
0.980, 15.
1.020, 36.
1.060, 21.
1.100, 10.
1.140, 6.
1.180, 7.
1.220, 6.
1.260, 12.
1.300, 4.
1.340, 9.
1.380, 7.
1.420, 15.
1.460, 24.
1.500, 28.
1.540, 19.
1.580, 7.
1.620, 11.
1.660, 44.
1.700, 146.
1.740, 245.
1.780, 135.
1.820, 50.
1.860, 13.
1.900, 8.
1.940, 5.
1.980, 5.
2.020, 4.
2.060, 8.
2.100, 2.
2.140, 6.
2.180, 4.
2.220, 7.
2.260, 11.
2.300, 16.
2.340, 15.
2.380, 7.
2.420, 5.
2.460, 4.
2.500, 5.
2.540, 6.
2.580, 9.
2.620, 20.
2.660, 16.
2.700, 13.
2.740, 2.
2.780, 5.
2.820, 5.
2.860, 7.
2.900, 2.
2.940, 3.
2.980, 6.
3.020, 1.
3.060, 4.
3.100, 3.
3.140, 6.
3.180, 5.
3.220, 4.
3.260, 5.
3.300, 8.
3.340, 8.
3.380, 7.
3.420, 5.
3.460, 5.
3.500, 7.
3.540, 6.
3.580, 7.
3.620, 27.
3.660, 57.
3.700, 62.
3.740, 32.
3.780, 17.
3.820, 6.
3.860, 2.
3.900, 3.
3.940, 8.
3.980, 9.
4.020, 10.
4.060, 9.
4.100, 7.
4.140, 6.
4.180, 2.
4.220, 2.
4.260, 5.
4.300, 3.
4.340, 3.
4.380, 4.
4.420, 4.
4.460, 4.
4.500, 6.
4.540, 3.
4.580, 2.
4.620, 2.
4.660, 1.
4.700, 2.
4.740, 2.
4.780, 3.
4.820, 3.
4.860, 2.
4.900, 5.
4.940, 2.
4.980, 2.
5.020, 3.
5.060, 4.
5.100, 2.
5.140, 2.
5.180, 4.
5.220, 2.
5.260, 1.
5.300, 4.
5.340, 3.
5.380, 2.
5.420, 1.
5.460, 3.
5.500, 3.
5.540, 3.
5.580, 1.
5.620, 1.
5.660, 2.
5.700, 0.
5.740, 4.
5.780, 1.
5.820, 1.
5.860, 3.
5.900, 1.
5.940, 2.
5.980, 3.
6.020, 2.
6.060, 2.
6.100, 3.
6.140, 2.
6.180, 2.
6.220, 4.
6.260, 1.
6.300, 6.
6.340, 3.
6.380, 4.
6.420, 6.
6.460, 5.
6.500, 1.
6.540, 2.
6.580, 1.
6.620, 3.
6.660, 1.
6.700, 1.
6.740, 2.
6.780, 1.
6.820, 1.
6.860, 2.
6.900, 2.
6.940, 2.
6.980, 2.
7.020, 2.
7.060, 1.
7.100, 2.
7.140, 2.
7.180, 1.
7.220, 1.
7.260, 1.
7.300, 1.
7.340, 1.
7.380, 1.
7.420, 2.
7.460, 0.
7.500, 1.
7.540, 0.
7.580, 3.
7.620, 2.
7.660, 0.
7.700, 1.
7.740, 2.
7.780, 1.
7.820, 0.
7.860, 2.
7.900, 1.
7.940, 3.
7.980, 6.
8.020, 5.
8.060, 4.
8.100, 5.
8.140, 3.
8.180, 0.
8.220, 0.
8.260, 2.
8.300, 0.
8.340, 0.
8.380, 2.
8.420, 1.
8.460, 1.
8.500, 1.
8.540, 3.
8.580, 2.
8.620, 2.
8.660, 1.
8.700, 0.
8.740, 2.
8.780, 2.
8.820, 1.
8.860, 2.
8.900, 1.
8.940, 1.
8.980, 1.
9.020, 2.
9.060, 2.
9.100, 2.
9.140, 1.
9.180, 0.
9.220, 1.
9.260, 2.
9.300, 0.
9.340, 0.
9.380, 1.
9.420, 1.
9.460, 1.
9.500, 1.
9.540, 2.
9.580, 2.
9.620, 2.
9.660, 0.
9.700, 1.
9.740, 0.
9.780, 1.
9.820, 1.
9.860, 0.
9.900, 0.
9.940, 0.
9.980, 0.
10.020, 0.
10.060, 0.
10.100, 0.
10.130, 0.
#ENDOFDATA   :