File: Figures/10-13-09 ESEM/Outer Shell Bulk 500x.txt
#FORMAT      : EMSA/MAS Spectral Data File
#VERSION     : 1.0
#TITLE       : Outer Shell Bulk 500x
#DATE        : 13-OCT-2009
#TIME        : 14:09
#OWNER       :
#NPOINTS     : 1024.
#NCOLUMNS    : 1.
#XUNITS      : keV
#YUNITS      : counts
#DATATYPE    : XY
#XPERCHAN    : 0.0100000
#OFFSET      : -0.100000
#SIGNALTYPE  : EDS
#CHOFFSET    : 10.0000
#LIVETIME    : 60
#REALTIME    : 61.1112
#BEAMKV      : 20.0000
#PROBECUR    : 0.000000
#MAGCAM      : 237.000
#XPOSITION mm: 0.0000
#YPOSITION mm: 0.0000
#ZPOSITION mm: 0.0000
##OXINSTELEMS: 6,8,13,14,17,20,29
##OXINSTLABEL: 14, 1.740, Si
##OXINSTLABEL: 8, 0.525, O
##OXINSTLABEL: 29, 8.048, Cu
##OXINSTLABEL: 29, 8.905, Cu
##OXINSTLABEL: 29, 0.930, Cu
##OXINSTLABEL: 29, 0.832, Cu
##OXINSTLABEL: 29, 0.811, Cu
##OXINSTLABEL: 6, 0.277, C
##OXINSTLABEL: 17, 2.622, Cl
##OXINSTLABEL: 17, 2.816, Cl
##OXINSTLABEL: 17, 0.184, Cl
##OXINSTLABEL: 20, 3.692, Ca
##OXINSTLABEL: 20, 4.013, Ca
##OXINSTLABEL: 20, 0.341, Ca
##OXINSTLABEL: 20, 0.306, Ca
##OXINSTLABEL: 13, 1.487, Al
#SPECTRUM    : Spectral Data Starts Here
-0.100, 0.
-0.060, 88.
-0.020, 779.
0.020, 1601.
0.060, 1108.
0.100, 158.
0.140, 6.
0.180, 5.
0.220, 18.
0.260, 32.
0.300, 30.
0.340, 7.
0.380, 4.
0.420, 19.
0.460, 92.
0.500, 283.
0.540, 261.
0.580, 69.
0.620, 7.
0.660, 5.
0.700, 3.
0.740, 4.
0.780, 9.
0.820, 9.
0.860, 10.
0.900, 30.
0.940, 40.
0.980, 25.
1.020, 21.
1.060, 13.
1.100, 10.
1.140, 8.
1.180, 13.
1.220, 7.
1.260, 8.
1.300, 7.
1.340, 6.
1.380, 14.
1.420, 11.
1.460, 18.
1.500, 23.
1.540, 18.
1.580, 17.
1.620, 27.
1.660, 110.
1.700, 374.
1.740, 620.
1.780, 443.
1.820, 115.
1.860, 34.
1.900, 12.
1.940, 5.
1.980, 8.
2.020, 6.
2.060, 8.
2.100, 4.
2.140, 3.
2.180, 8.
2.220, 8.
2.260, 7.
2.300, 10.
2.340, 10.
2.380, 11.
2.420, 7.
2.460, 7.
2.500, 4.
2.540, 8.
2.580, 19.
2.620, 22.
2.660, 17.
2.700, 7.
2.740, 5.
2.780, 5.
2.820, 10.
2.860, 5.
2.900, 4.
2.940, 9.
2.980, 6.
3.020, 3.
3.060, 6.
3.100, 6.
3.140, 9.
3.180, 6.
3.220, 7.
3.260, 9.
3.300, 9.
3.340, 9.
3.380, 3.
3.420, 4.
3.460, 5.
3.500, 4.
3.540, 7.
3.580, 7.
3.620, 6.
3.660, 10.
3.700, 10.
3.740, 8.
3.780, 6.
3.820, 4.
3.860, 6.
3.900, 4.
3.940, 4.
3.980, 7.
4.020, 6.
4.060, 5.
4.100, 4.
4.140, 7.
4.180, 5.
4.220, 4.
4.260, 3.
4.300, 3.
4.340, 3.
4.380, 5.
4.420, 5.
4.460, 5.
4.500, 4.
4.540, 5.
4.580, 6.
4.620, 5.
4.660, 5.
4.700, 4.
4.740, 5.
4.780, 3.
4.820, 3.
4.860, 5.
4.900, 2.
4.940, 2.
4.980, 4.
5.020, 4.
5.060, 3.
5.100, 5.
5.140, 5.
5.180, 3.
5.220, 4.
5.260, 6.
5.300, 3.
5.340, 4.
5.380, 5.
5.420, 4.
5.460, 3.
5.500, 4.
5.540, 3.
5.580, 4.
5.620, 2.
5.660, 1.
5.700, 1.
5.740, 5.
5.780, 3.
5.820, 2.
5.860, 3.
5.900, 3.
5.940, 1.
5.980, 3.
6.020, 2.
6.060, 2.
6.100, 1.
6.140, 1.
6.180, 3.
6.220, 2.
6.260, 2.
6.300, 2.
6.340, 3.
6.380, 1.
6.420, 3.
6.460, 2.
6.500, 2.
6.540, 5.
6.580, 3.
6.620, 3.
6.660, 1.
6.700, 2.
6.740, 1.
6.780, 1.
6.820, 3.
6.860, 4.
6.900, 1.
6.940, 2.
6.980, 2.
7.020, 3.
7.060, 0.
7.100, 2.
7.140, 2.
7.180, 2.
7.220, 2.
7.260, 1.
7.300, 0.
7.340, 3.
7.380, 1.
7.420, 4.
7.460, 1.
7.500, 1.
7.540, 0.
7.580, 2.
7.620, 1.
7.660, 1.
7.700, 4.
7.740, 1.
7.780, 1.
7.820, 1.
7.860, 3.
7.900, 8.
7.940, 10.
7.980, 22.
8.020, 20.
8.060, 14.
8.100, 13.
8.140, 6.
8.180, 1.
8.220, 0.
8.260, 2.
8.300, 2.
8.340, 2.
8.380, 2.
8.420, 1.
8.460, 2.
8.500, 2.
8.540, 0.
8.580, 0.
8.620, 2.
8.660, 1.
8.700, 3.
8.740, 1.
8.780, 2.
8.820, 1.
8.860, 5.
8.900, 5.
8.940, 3.
8.980, 1.
9.020, 3.
9.060, 3.
9.100, 1.
9.140, 1.
9.180, 3.
9.220, 1.
9.260, 2.
9.300, 3.
9.340, 1.
9.380, 1.
9.420, 2.
9.460, 1.
9.500, 1.
9.540, 1.
9.580, 1.
9.620, 1.
9.660, 0.
9.700, 2.
9.740, 0.
9.780, 1.
9.820, 1.
9.860, 0.
9.900, 0.
9.940, 0.
9.980, 0.
10.020, 0.
10.060, 0.
10.100, 0.
10.130, 0.
#ENDOFDATA   :