File: Figures/10-13-09 ESEM/Tubing 1 2200x.txt
#FORMAT      : EMSA/MAS Spectral Data File
#VERSION     : 1.0
#TITLE       : Tubing 1 2200x
#DATE        : 13-OCT-2009
#TIME        : 14:44
#OWNER       :
#NPOINTS     : 1024.
#NCOLUMNS    : 1.
#XUNITS      : keV
#YUNITS      : counts
#DATATYPE    : XY
#XPERCHAN    : 0.0100000
#OFFSET      : -0.100000
#SIGNALTYPE  : EDS
#CHOFFSET    : 10.0000
#LIVETIME    : 60
#REALTIME    : 61.0846
#BEAMKV      : 20.0000
#PROBECUR    : 0.000000
#MAGCAM      : 1041.00
#XPOSITION mm: 0.0000
#YPOSITION mm: 0.0000
#ZPOSITION mm: 0.0000
##OXINSTELEMS: 6,8,11,13,14
##OXINSTLABEL: 8, 0.525, O
##OXINSTLABEL: 14, 1.740, Si
##OXINSTLABEL: 6, 0.277, C
##OXINSTLABEL: 13, 1.487, Al
##OXINSTLABEL: 11, 1.041, Na
#SPECTRUM    : Spectral Data Starts Here
-0.100, 0.
-0.060, 83.
-0.020, 734.
0.020, 1490.
0.060, 1014.
0.100, 162.
0.140, 9.
0.180, 2.
0.220, 23.
0.260, 40.
0.300, 31.
0.340, 5.
0.380, 12.
0.420, 19.
0.460, 113.
0.500, 250.
0.540, 231.
0.580, 60.
0.620, 4.
0.660, 5.
0.700, 7.
0.740, 3.
0.780, 5.
0.820, 6.
0.860, 10.
0.900, 9.
0.940, 11.
0.980, 14.
1.020, 17.
1.060, 17.
1.100, 14.
1.140, 8.
1.180, 4.
1.220, 12.
1.260, 8.
1.300, 6.
1.340, 6.
1.380, 10.
1.420, 13.
1.460, 26.
1.500, 21.
1.540, 14.
1.580, 17.
1.620, 25.
1.660, 130.
1.700, 496.
1.740, 796.
1.780, 514.
1.820, 156.
1.860, 43.
1.900, 16.
1.940, 8.
1.980, 6.
2.020, 6.
2.060, 6.
2.100, 5.
2.140, 4.
2.180, 3.
2.220, 5.
2.260, 3.
2.300, 3.
2.340, 5.
2.380, 7.
2.420, 10.
2.460, 8.
2.500, 3.
2.540, 5.
2.580, 8.
2.620, 9.
2.660, 7.
2.700, 6.
2.740, 8.
2.780, 5.
2.820, 8.
2.860, 5.
2.900, 4.
2.940, 6.
2.980, 7.
3.020, 8.
3.060, 4.
3.100, 8.
3.140, 5.
3.180, 2.
3.220, 5.
3.260, 8.
3.300, 8.
3.340, 7.
3.380, 8.
3.420, 7.
3.460, 5.
3.500, 3.
3.540, 4.
3.580, 5.
3.620, 8.
3.660, 10.
3.700, 7.
3.740, 7.
3.780, 6.
3.820, 5.
3.860, 4.
3.900, 4.
3.940, 6.
3.980, 7.
4.020, 3.
4.060, 4.
4.100, 5.
4.140, 4.
4.180, 4.
4.220, 2.
4.260, 5.
4.300, 4.
4.340, 3.
4.380, 4.
4.420, 3.
4.460, 2.
4.500, 6.
4.540, 3.
4.580, 2.
4.620, 4.
4.660, 5.
4.700, 3.
4.740, 2.
4.780, 5.
4.820, 1.
4.860, 5.
4.900, 3.
4.940, 5.
4.980, 4.
5.020, 5.
5.060, 5.
5.100, 2.
5.140, 5.
5.180, 4.
5.220, 1.
5.260, 3.
5.300, 3.
5.340, 5.
5.380, 4.
5.420, 3.
5.460, 1.
5.500, 6.
5.540, 3.
5.580, 2.
5.620, 0.
5.660, 4.
5.700, 2.
5.740, 2.
5.780, 2.
5.820, 5.
5.860, 2.
5.900, 4.
5.940, 3.
5.980, 2.
6.020, 4.
6.060, 0.
6.100, 3.
6.140, 3.
6.180, 4.
6.220, 1.
6.260, 1.
6.300, 7.
6.340, 2.
6.380, 6.
6.420, 2.
6.460, 2.
6.500, 3.
6.540, 3.
6.580, 2.
6.620, 3.
6.660, 2.
6.700, 3.
6.740, 2.
6.780, 2.
6.820, 1.
6.860, 1.
6.900, 2.
6.940, 3.
6.980, 4.
7.020, 1.
7.060, 3.
7.100, 2.
7.140, 2.
7.180, 3.
7.220, 4.
7.260, 3.
7.300, 2.
7.340, 2.
7.380, 2.
7.420, 1.
7.460, 2.
7.500, 4.
7.540, 2.
7.580, 1.
7.620, 0.
7.660, 1.
7.700, 1.
7.740, 2.
7.780, 2.
7.820, 1.
7.860, 2.
7.900, 4.
7.940, 3.
7.980, 5.
8.020, 5.
8.060, 5.
8.100, 4.
8.140, 2.
8.180, 6.
8.220, 1.
8.260, 3.
8.300, 2.
8.340, 1.
8.380, 2.
8.420, 1.
8.460, 0.
8.500, 1.
8.540, 2.
8.580, 0.
8.620, 0.
8.660, 1.
8.700, 2.
8.740, 0.
8.780, 1.
8.820, 0.
8.860, 1.
8.900, 1.
8.940, 1.
8.980, 1.
9.020, 2.
9.060, 0.
9.100, 3.
9.140, 1.
9.180, 1.
9.220, 1.
9.260, 2.
9.300, 2.
9.340, 2.
9.380, 0.
9.420, 0.
9.460, 0.
9.500, 2.
9.540, 1.
9.580, 3.
9.620, 1.
9.660, 1.
9.700, 1.
9.740, 3.
9.780, 0.
9.820, 0.
9.860, 0.
9.900, 0.
9.940, 0.
9.980, 0.
10.020, 0.
10.060, 0.
10.100, 0.
10.130, 0.
#ENDOFDATA   :