File: Figures/10-13-09 ESEM/Tubing 3 4000x.txt
#FORMAT      : EMSA/MAS Spectral Data File
#VERSION     : 1.0
#TITLE       : Tubing 3 4000x
#DATE        : 13-OCT-2009
#TIME        : 14:58
#OWNER       :
#NPOINTS     : 1024.
#NCOLUMNS    : 1.
#XUNITS      : keV
#YUNITS      : counts
#DATATYPE    : XY
#XPERCHAN    : 0.0100000
#OFFSET      : -0.100000
#SIGNALTYPE  : EDS
#CHOFFSET    : 10.0000
#LIVETIME    : 60
#REALTIME    : 61.3453
#BEAMKV      : 20.0000
#PROBECUR    : 0.000000
#MAGCAM      : 2103.00
#XPOSITION mm: 0.0000
#YPOSITION mm: 0.0000
#ZPOSITION mm: 0.0000
##OXINSTELEMS: 6,8,11,13,14,17,19,29
##OXINSTLABEL: 6, 0.277, C
##OXINSTLABEL: 14, 1.740, Si
##OXINSTLABEL: 8, 0.525, O
##OXINSTLABEL: 11, 1.041, Na
##OXINSTLABEL: 29, 8.048, Cu
##OXINSTLABEL: 29, 8.905, Cu
##OXINSTLABEL: 29, 0.930, Cu
##OXINSTLABEL: 29, 0.832, Cu
##OXINSTLABEL: 29, 0.811, Cu
##OXINSTLABEL: 19, 3.314, K
##OXINSTLABEL: 19, 3.590, K
##OXINSTLABEL: 19, 0.262, K
##OXINSTLABEL: 17, 2.622, Cl
##OXINSTLABEL: 17, 2.816, Cl
##OXINSTLABEL: 17, 0.184, Cl
##OXINSTLABEL: 13, 1.487, Al
#SPECTRUM    : Spectral Data Starts Here
-0.100, 0.
-0.060, 98.
-0.020, 710.
0.020, 1468.
0.060, 1004.
0.100, 149.
0.140, 8.
0.180, 8.
0.220, 11.
0.260, 21.
0.300, 13.
0.340, 9.
0.380, 8.
0.420, 25.
0.460, 173.
0.500, 411.
0.540, 354.
0.580, 89.
0.620, 13.
0.660, 6.
0.700, 5.
0.740, 7.
0.780, 10.
0.820, 7.
0.860, 13.
0.900, 19.
0.940, 19.
0.980, 37.
1.020, 78.
1.060, 74.
1.100, 29.
1.140, 17.
1.180, 8.
1.220, 11.
1.260, 13.
1.300, 14.
1.340, 13.
1.380, 13.
1.420, 13.
1.460, 13.
1.500, 31.
1.540, 20.
1.580, 21.
1.620, 42.
1.660, 188.
1.700, 650.
1.740, 1039.
1.780, 695.
1.820, 198.
1.860, 49.
1.900, 15.
1.940, 8.
1.980, 5.
2.020, 5.
2.060, 9.
2.100, 11.
2.140, 6.
2.180, 7.
2.220, 9.
2.260, 7.
2.300, 12.
2.340, 7.
2.380, 11.
2.420, 12.
2.460, 7.
2.500, 11.
2.540, 9.
2.580, 13.
2.620, 19.
2.660, 7.
2.700, 8.
2.740, 6.
2.780, 11.
2.820, 11.
2.860, 7.
2.900, 11.
2.940, 7.
2.980, 5.
3.020, 6.
3.060, 3.
3.100, 8.
3.140, 4.
3.180, 8.
3.220, 10.
3.260, 7.
3.300, 13.
3.340, 17.
3.380, 11.
3.420, 10.
3.460, 10.
3.500, 8.
3.540, 5.
3.580, 8.
3.620, 9.
3.660, 6.
3.700, 7.
3.740, 7.
3.780, 5.
3.820, 9.
3.860, 6.
3.900, 7.
3.940, 6.
3.980, 5.
4.020, 8.
4.060, 9.
4.100, 7.
4.140, 7.
4.180, 5.
4.220, 6.
4.260, 5.
4.300, 5.
4.340, 5.
4.380, 4.
4.420, 7.
4.460, 5.
4.500, 4.
4.540, 4.
4.580, 2.
4.620, 3.
4.660, 6.
4.700, 7.
4.740, 4.
4.780, 5.
4.820, 6.
4.860, 4.
4.900, 4.
4.940, 4.
4.980, 3.
5.020, 4.
5.060, 5.
5.100, 4.
5.140, 3.
5.180, 2.
5.220, 3.
5.260, 4.
5.300, 5.
5.340, 5.
5.380, 3.
5.420, 3.
5.460, 3.
5.500, 6.
5.540, 3.
5.580, 2.
5.620, 2.
5.660, 3.
5.700, 3.
5.740, 3.
5.780, 5.
5.820, 4.
5.860, 3.
5.900, 3.
5.940, 3.
5.980, 3.
6.020, 3.
6.060, 4.
6.100, 2.
6.140, 7.
6.180, 3.
6.220, 2.
6.260, 3.
6.300, 6.
6.340, 3.
6.380, 6.
6.420, 4.
6.460, 5.
6.500, 2.
6.540, 1.
6.580, 3.
6.620, 2.
6.660, 2.
6.700, 2.
6.740, 4.
6.780, 3.
6.820, 2.
6.860, 3.
6.900, 4.
6.940, 3.
6.980, 3.
7.020, 3.
7.060, 1.
7.100, 0.
7.140, 2.
7.180, 2.
7.220, 3.
7.260, 3.
7.300, 3.
7.340, 4.
7.380, 3.
7.420, 2.
7.460, 4.
7.500, 2.
7.540, 1.
7.580, 4.
7.620, 1.
7.660, 2.
7.700, 5.
7.740, 4.
7.780, 2.
7.820, 2.
7.860, 2.
7.900, 4.
7.940, 4.
7.980, 11.
8.020, 10.
8.060, 9.
8.100, 4.
8.140, 6.
8.180, 2.
8.220, 1.
8.260, 3.
8.300, 2.
8.340, 1.
8.380, 1.
8.420, 4.
8.460, 3.
8.500, 1.
8.540, 3.
8.580, 2.
8.620, 2.
8.660, 2.
8.700, 2.
8.740, 1.
8.780, 1.
8.820, 5.
8.860, 1.
8.900, 1.
8.940, 3.
8.980, 1.
9.020, 2.
9.060, 1.
9.100, 0.
9.140, 0.
9.180, 1.
9.220, 2.
9.260, 0.
9.300, 2.
9.340, 2.
9.380, 1.
9.420, 1.
9.460, 2.
9.500, 1.
9.540, 1.
9.580, 2.
9.620, 1.
9.660, 2.
9.700, 2.
9.740, 0.
9.780, 1.
9.820, 0.
9.860, 0.
9.900, 0.
9.940, 0.
9.980, 0.
10.020, 0.
10.060, 0.
10.100, 0.
10.130, 0.
#ENDOFDATA   :