File: Figures/10-13-09 ESEM/Whole Bead 2 12000x Surface.txt
#FORMAT      : EMSA/MAS Spectral Data File
#VERSION     : 1.0
#TITLE       : Whole Bead 2 12000x Surface
#DATE        : 13-OCT-2009
#TIME        : 15:08
#OWNER       :
#NPOINTS     : 1024.
#NCOLUMNS    : 1.
#XUNITS      : keV
#YUNITS      : counts
#DATATYPE    : XY
#XPERCHAN    : 0.0100000
#OFFSET      : -0.100000
#SIGNALTYPE  : EDS
#CHOFFSET    : 10.0000
#LIVETIME    : 60
#REALTIME    : 61.5364
#BEAMKV      : 20.0000
#PROBECUR    : 0.000000
#MAGCAM      : 7574.00
#XPOSITION mm: 0.0000
#YPOSITION mm: 0.0000
#ZPOSITION mm: 0.0000
##OXINSTELEMS: 6,8,13,14,17,19,20,26,29
##OXINSTLABEL: 8, 0.525, O
##OXINSTLABEL: 14, 1.740, Si
##OXINSTLABEL: 6, 0.277, C
##OXINSTLABEL: 29, 8.048, Cu
##OXINSTLABEL: 29, 8.905, Cu
##OXINSTLABEL: 29, 0.930, Cu
##OXINSTLABEL: 29, 0.832, Cu
##OXINSTLABEL: 29, 0.811, Cu
##OXINSTLABEL: 17, 2.622, Cl
##OXINSTLABEL: 17, 2.816, Cl
##OXINSTLABEL: 17, 0.184, Cl
##OXINSTLABEL: 13, 1.487, Al
##OXINSTLABEL: 19, 3.314, K
##OXINSTLABEL: 19, 3.590, K
##OXINSTLABEL: 19, 0.262, K
##OXINSTLABEL: 20, 3.692, Ca
##OXINSTLABEL: 20, 4.013, Ca
##OXINSTLABEL: 20, 0.341, Ca
##OXINSTLABEL: 20, 0.306, Ca
##OXINSTLABEL: 26, 6.404, Fe
##OXINSTLABEL: 26, 7.058, Fe
##OXINSTLABEL: 26, 0.705, Fe
##OXINSTLABEL: 26, 0.628, Fe
#SPECTRUM    : Spectral Data Starts Here
-0.100, 0.
-0.060, 91.
-0.020, 704.
0.020, 1475.
0.060, 998.
0.100, 145.
0.140, 11.
0.180, 15.
0.220, 48.
0.260, 96.
0.300, 68.
0.340, 23.
0.380, 12.
0.420, 32.
0.460, 162.
0.500, 437.
0.540, 415.
0.580, 111.
0.620, 17.
0.660, 10.
0.700, 13.
0.740, 12.
0.780, 19.
0.820, 17.
0.860, 21.
0.900, 59.
0.940, 82.
0.980, 50.
1.020, 56.
1.060, 46.
1.100, 23.
1.140, 12.
1.180, 18.
1.220, 20.
1.260, 20.
1.300, 18.
1.340, 19.
1.380, 18.
1.420, 28.
1.460, 43.
1.500, 50.
1.540, 38.
1.580, 38.
1.620, 54.
1.660, 163.
1.700, 613.
1.740, 953.
1.780, 652.
1.820, 201.
1.860, 56.
1.900, 24.
1.940, 14.
1.980, 16.
2.020, 14.
2.060, 19.
2.100, 13.
2.140, 10.
2.180, 15.
2.220, 20.
2.260, 23.
2.300, 19.
2.340, 24.
2.380, 12.
2.420, 18.
2.460, 13.
2.500, 19.
2.540, 25.
2.580, 34.
2.620, 46.
2.660, 39.
2.700, 21.
2.740, 11.
2.780, 17.
2.820, 16.
2.860, 13.
2.900, 13.
2.940, 12.
2.980, 9.
3.020, 9.
3.060, 14.
3.100, 11.
3.140, 17.
3.180, 15.
3.220, 13.
3.260, 28.
3.300, 40.
3.340, 35.
3.380, 28.
3.420, 17.
3.460, 10.
3.500, 17.
3.540, 13.
3.580, 20.
3.620, 30.
3.660, 45.
3.700, 45.
3.740, 37.
3.780, 17.
3.820, 10.
3.860, 8.
3.900, 12.
3.940, 10.
3.980, 13.
4.020, 14.
4.060, 11.
4.100, 14.
4.140, 7.
4.180, 4.
4.220, 8.
4.260, 6.
4.300, 7.
4.340, 9.
4.380, 10.
4.420, 9.
4.460, 10.
4.500, 12.
4.540, 10.
4.580, 6.
4.620, 7.
4.660, 5.
4.700, 7.
4.740, 8.
4.780, 10.
4.820, 9.
4.860, 11.
4.900, 5.
4.940, 8.
4.980, 10.
5.020, 7.
5.060, 6.
5.100, 8.
5.140, 6.
5.180, 7.
5.220, 7.
5.260, 4.
5.300, 6.
5.340, 2.
5.380, 8.
5.420, 10.
5.460, 5.
5.500, 5.
5.540, 4.
5.580, 5.
5.620, 5.
5.660, 4.
5.700, 5.
5.740, 4.
5.780, 6.
5.820, 8.
5.860, 6.
5.900, 7.
5.940, 7.
5.980, 6.
6.020, 3.
6.060, 6.
6.100, 3.
6.140, 7.
6.180, 4.
6.220, 5.
6.260, 4.
6.300, 7.
6.340, 11.
6.380, 8.
6.420, 9.
6.460, 7.
6.500, 3.
6.540, 6.
6.580, 4.
6.620, 4.
6.660, 3.
6.700, 6.
6.740, 2.
6.780, 4.
6.820, 4.
6.860, 4.
6.900, 4.
6.940, 5.
6.980, 1.
7.020, 4.
7.060, 3.
7.100, 7.
7.140, 3.
7.180, 3.
7.220, 3.
7.260, 4.
7.300, 1.
7.340, 3.
7.380, 2.
7.420, 2.
7.460, 6.
7.500, 4.
7.540, 2.
7.580, 3.
7.620, 3.
7.660, 3.
7.700, 4.
7.740, 2.
7.780, 3.
7.820, 3.
7.860, 5.
7.900, 10.
7.940, 20.
7.980, 25.
8.020, 38.
8.060, 38.
8.100, 18.
8.140, 7.
8.180, 5.
8.220, 3.
8.260, 6.
8.300, 3.
8.340, 3.
8.380, 4.
8.420, 4.
8.460, 3.
8.500, 4.
8.540, 3.
8.580, 3.
8.620, 1.
8.660, 2.
8.700, 2.
8.740, 6.
8.780, 3.
8.820, 5.
8.860, 7.
8.900, 8.
8.940, 5.
8.980, 4.
9.020, 4.
9.060, 0.
9.100, 4.
9.140, 0.
9.180, 2.
9.220, 2.
9.260, 1.
9.300, 3.
9.340, 2.
9.380, 3.
9.420, 3.
9.460, 4.
9.500, 3.
9.540, 4.
9.580, 1.
9.620, 4.
9.660, 3.
9.700, 1.
9.740, 2.
9.780, 2.
9.820, 0.
9.860, 0.
9.900, 0.
9.940, 0.
9.980, 0.
10.020, 0.
10.060, 0.
10.100, 0.
10.130, 0.
#ENDOFDATA   :